X axis (cm^-1)	Imaginary index (k)
100.28	0.034614
102.21	0.036598
104.14	0.038743
106.07	0.041067
107.99	0.043591
109.92	0.046341
111.85	0.049348
113.78	0.052644
115.71	0.056272
117.64	0.060279
119.56	0.064724
121.49	0.069676
123.42	0.075218
125.35	0.081455
127.28	0.088513
129.21	0.096549
131.14	0.10576
133.06	0.11641
134.99	0.12881
136.92	0.1434
138.85	0.16075
140.78	0.18164
142.71	0.20715
144.63	0.23881
146.56	0.27888
148.49	0.33077
150.42	0.39988
152.35	0.49515
154.28	0.63225
156.21	0.84081
158.13	1.1816
160.06	1.7914
161.99	2.9901
163.92	5.2529
165.85	7.4144
167.78	7.394
169.71	6.5542
171.63	5.7673
173.56	5.1392
175.49	4.6406
177.42	4.2367
179.35	3.9017
181.28	3.6179
183.2	3.3731
185.13	3.1586
187.06	2.9682
188.99	2.7971
190.92	2.6419
192.85	2.5
194.78	2.3692
196.7	2.248
198.63	2.1352
200.56	2.0297
202.49	1.9307
204.42	1.8375
206.35	1.7496
208.27	1.6661
210.2	1.5864
212.13	1.5097
214.06	1.4351
215.99	1.362
217.92	1.2897
219.85	1.2184
221.77	1.1487
223.7	1.0827
225.63	1.0243
227.56	0.97878
229.49	0.95081
231.42	0.93918
233.34	0.93413
235.27	0.92216
237.2	0.89522
239.13	0.85441
241.06	0.80684
242.99	0.76164
244.92	0.72739
246.84	0.70992
248.77	0.71024
250.7	0.72357
252.63	0.74032
254.56	0.74926
256.49	0.7421
258.41	0.71623
260.34	0.67381
262.27	0.61894
264.2	0.55569
266.13	0.4876
268.06	0.41816
269.99	0.3514
271.91	0.29161
273.84	0.24165
275.77	0.20186
277.7	0.17079
279.63	0.14652
281.56	0.12736
283.48	0.112
285.41	0.099498
287.34	0.089179
289.27	0.080546
291.2	0.073238
293.13	0.066985
295.06	0.061585
296.98	0.05688
298.91	0.052751
300.84	0.049101
302.77	0.045856
304.7	0.042953
306.63	0.040345
308.55	0.037988
310.48	0.035851
312.41	0.033905
314.34	0.032127
316.27	0.030496
318.2	0.028996
320.13	0.027612
322.05	0.026332
323.98	0.025146
325.91	0.024043
327.84	0.023015
329.77	0.022056
331.7	0.021159
333.62	0.020319
335.55	0.01953
337.48	0.018789
339.41	0.018091
341.34	0.017432
343.27	0.016811
345.2	0.016223
347.12	0.015667
349.05	0.01514
350.98	0.01464
352.91	0.014165
354.84	0.013713
356.77	0.013283
358.69	0.012873
360.62	0.012483
362.55	0.01211
364.48	0.011754
366.41	0.011414
368.34	0.011088
370.27	0.010776
372.19	0.010478
374.12	0.010191
376.05	0.0099168
377.98	0.0096532
379.91	0.0093999
381.84	0.0091564
383.76	0.0089223
385.69	0.008697
387.62	0.0084802
389.55	0.0082712
391.48	0.0080699
393.41	0.0078758
395.34	0.0076885
397.26	0.0075077
399.19	0.0073332
401.12	0.0071645
403.05	0.0070016
404.98	0.0068441
406.91	0.0066917
408.83	0.0065443
410.76	0.0064016
412.69	0.0062634
414.62	0.0061295
416.55	0.0059998
418.48	0.0058741
420.41	0.0057522
422.33	0.0056339
424.26	0.0055192
426.19	0.0054078
428.12	0.0052997
430.05	0.0051947
431.98	0.0050926
433.9	0.0049935
435.83	0.0048971
437.76	0.0048035
439.69	0.0047123
441.62	0.0046237
443.55	0.0045375
445.48	0.0044535
447.4	0.0043718
449.33	0.0042922
451.26	0.0042147
453.19	0.0041392
455.12	0.0040656
457.05	0.0039939
458.98	0.003924
460.9	0.0038558
462.83	0.0037893
464.76	0.0037245
466.69	0.0036612
468.62	0.0035995
470.55	0.0035392
472.47	0.0034804
474.4	0.0034229
476.33	0.0033668
478.26	0.003312
480.19	0.0032585
482.12	0.0032062
484.05	0.003155
485.97	0.0031051
487.9	0.0030562
489.83	0.0030084
491.76	0.0029617
493.69	0.002916
495.62	0.0028713
497.54	0.0028276
499.47	0.0027848
501.4	0.0027429
503.33	0.0027019
505.26	0.0026618
507.19	0.0026225
509.12	0.002584
511.04	0.0025463
512.97	0.0025094
514.9	0.0024733
516.83	0.0024378
518.76	0.0024031
520.69	0.0023691
522.61	0.0023357
524.54	0.002303
526.47	0.002271
528.4	0.0022395
530.33	0.0022087
532.26	0.0021785
534.19	0.0021489
536.11	0.0021198
538.04	0.0020912
539.97	0.0020632
541.9	0.0020358
543.83	0.0020088
545.76	0.0019823
547.68	0.0019563
549.61	0.0019308
551.54	0.0019058
553.47	0.0018812
555.4	0.0018571
557.33	0.0018333
559.26	0.00181
561.18	0.0017872
563.11	0.0017647
565.04	0.0017426
566.97	0.0017209
568.9	0.0016996
570.83	0.0016786
572.75	0.001658
574.68	0.0016378
576.61	0.0016178
578.54	0.0015983
580.47	0.001579
582.4	0.0015601
584.33	0.0015415
586.25	0.0015232
588.18	0.0015052
590.11	0.0014875
592.04	0.0014701
593.97	0.001453
595.9	0.0014361
597.82	0.0014195
599.75	0.0014032
601.68	0.0013871
603.61	0.0013713
605.54	0.0013558
607.47	0.0013404
609.4	0.0013254
611.32	0.0013105
613.25	0.0012959
615.18	0.0012815
617.11	0.0012674
619.04	0.0012534
620.97	0.0012397
622.89	0.0012261
624.82	0.0012128
626.75	0.0011997
628.68	0.0011868
630.61	0.001174
632.54	0.0011615
634.47	0.0011491
636.39	0.0011369
638.32	0.0011249
640.25	0.0011131
642.18	0.0011014
644.11	0.0010899
646.04	0.0010786
647.96	0.0010674
649.89	0.0010564
651.82	0.0010456
653.75	0.0010349
655.68	0.0010243
657.61	0.0010139
659.54	0.0010037
661.46	0.00099357
663.39	0.0009836
665.32	0.00097376
667.25	0.00096407
669.18	0.0009545
671.11	0.00094506
673.03	0.00093575
674.96	0.00092657
676.89	0.00091751
678.82	0.00090858
680.75	0.00089976
682.68	0.00089106
684.61	0.00088247
686.53	0.000874
688.46	0.00086564
690.39	0.00085739
692.32	0.00084925
694.25	0.00084121
696.18	0.00083328
698.11	0.00082545
700.03	0.00081772
701.96	0.00081009
703.89	0.00080255
705.82	0.00079512
707.75	0.00078777
709.68	0.00078052
711.6	0.00077337
713.53	0.0007663
715.46	0.00075932
717.39	0.00075242
719.32	0.00074561
721.25	0.00073889
723.17	0.00073225
725.1	0.00072569
727.03	0.00071921
728.96	0.00071281
730.89	0.00070649
732.82	0.00070024
734.75	0.00069407
736.67	0.00068798
738.6	0.00068195
740.53	0.000676
742.46	0.00067012
744.39	0.00066431
746.32	0.00065857
748.25	0.0006529
750.17	0.00064729
752.1	0.00064175
754.03	0.00063627
755.96	0.00063086
757.89	0.00062551
759.82	0.00062022
761.74	0.00061499
763.67	0.00060982
765.6	0.00060472
767.53	0.00059967
769.46	0.00059467
771.39	0.00058974
773.32	0.00058486
775.24	0.00058003
777.17	0.00057526
779.1	0.00057055
781.03	0.00056588
782.96	0.00056127
784.89	0.00055671
786.81	0.0005522
788.74	0.00054774
790.67	0.00054332
792.6	0.00053896
794.53	0.00053464
796.46	0.00053037
798.39	0.00052615
800.31	0.00052197
802.24	0.00051784
804.17	0.00051376
806.1	0.00050971
808.03	0.00050571
809.96	0.00050175
811.88	0.00049784
813.81	0.00049396
815.74	0.00049013
817.67	0.00048634
819.6	0.00048259
821.53	0.00047887
823.46	0.0004752
825.38	0.00047156
827.31	0.00046796
829.24	0.0004644
831.17	0.00046088
833.1	0.00045739
835.03	0.00045394
836.95	0.00045052
838.88	0.00044714
840.81	0.00044379
842.74	0.00044048
844.67	0.0004372
846.6	0.00043395
848.53	0.00043074
850.45	0.00042756
852.38	0.00042441
854.31	0.00042129
856.24	0.0004182
858.17	0.00041515
860.1	0.00041212
862.02	0.00040912
863.95	0.00040616
865.88	0.00040322
867.81	0.00040031
869.74	0.00039743
871.67	0.00039458
873.6	0.00039176
875.52	0.00038896
877.45	0.00038619
879.38	0.00038345
881.31	0.00038073
883.24	0.00037804
885.17	0.00037537
887.09	0.00037273
889.02	0.00037012
890.95	0.00036753
892.88	0.00036496
894.81	0.00036242
896.74	0.00035991
898.67	0.00035741
900.59	0.00035494
902.52	0.0003525
904.45	0.00035007
906.38	0.00034767
908.31	0.00034529
910.24	0.00034294
912.16	0.0003406
914.09	0.00033829
916.02	0.000336
917.95	0.00033373
919.88	0.00033148
921.81	0.00032925
923.74	0.00032704
925.66	0.00032485
927.59	0.00032268
929.52	0.00032053
931.45	0.0003184
933.38	0.00031628
935.31	0.00031419
937.23	0.00031212
939.16	0.00031006
941.09	0.00030803
943.02	0.00030601
944.95	0.00030401
946.88	0.00030202
948.81	0.00030006
950.73	0.00029811
952.66	0.00029618
954.59	0.00029426
956.52	0.00029236
958.45	0.00029048
960.38	0.00028862
962.3	0.00028677
964.23	0.00028494
966.16	0.00028312
968.09	0.00028132
970.02	0.00027953
971.95	0.00027776
973.88	0.00027601
975.8	0.00027427
977.73	0.00027254
979.66	0.00027083
981.59	0.00026913
983.52	0.00026745
985.45	0.00026578
987.37	0.00026413
989.3	0.00026249
991.23	0.00026086
993.16	0.00025925
995.09	0.00025765
997.02	0.00025607
998.95	0.00025449
1000.9	0.00025294
1002.8	0.00025139
1004.7	0.00024985
1006.7	0.00024833
1008.6	0.00024682
1010.5	0.00024533
1012.4	0.00024384
1014.4	0.00024237
1016.3	0.00024091
1018.2	0.00023946
1020.2	0.00023803
1022.1	0.0002366
1024	0.00023519
1025.9	0.00023379
1027.9	0.0002324
1029.8	0.00023102
1031.7	0.00022965
1033.7	0.00022829
1035.6	0.00022695
1037.5	0.00022561
1039.4	0.00022428
1041.4	0.00022297
1043.3	0.00022167
1045.2	0.00022037
1047.2	0.00021909
1049.1	0.00021781
1051	0.00021655
1052.9	0.0002153
1054.9	0.00021405
1056.8	0.00021282
1058.7	0.00021159
1060.7	0.00021038
1062.6	0.00020917
1064.5	0.00020797
1066.4	0.00020679
1068.4	0.00020561
1070.3	0.00020444
1072.2	0.00020328
1074.2	0.00020213
1076.1	0.00020099
1078	0.00019985
1079.9	0.00019873
1081.9	0.00019761
1083.8	0.0001965
1085.7	0.0001954
1087.7	0.00019431
1089.6	0.00019323
1091.5	0.00019215
1093.4	0.00019108
1095.4	0.00019002
1097.3	0.00018897
1099.2	0.00018793
1101.2	0.00018689
1103.1	0.00018587
1105	0.00018485
1106.9	0.00018383
1108.9	0.00018283
1110.8	0.00018183
1112.7	0.00018084
1114.7	0.00017986
1116.6	0.00017888
1118.5	0.00017791
1120.4	0.00017695
1122.4	0.00017599
1124.3	0.00017505
1126.2	0.0001741
1128.2	0.00017317
1130.1	0.00017224
1132	0.00017132
1133.9	0.00017041
1135.9	0.0001695
1137.8	0.0001686
1139.7	0.0001677
1141.7	0.00016682
1143.6	0.00016593
1145.5	0.00016506
1147.4	0.00016419
1149.4	0.00016332
1151.3	0.00016247
1153.2	0.00016162
1155.2	0.00016077
1157.1	0.00015993
1159	0.0001591
1160.9	0.00015827
1162.9	0.00015745
1164.8	0.00015663
1166.7	0.00015582
1168.7	0.00015502
1170.6	0.00015422
1172.5	0.00015343
1174.4	0.00015264
1176.4	0.00015185
1178.3	0.00015108
1180.2	0.00015031
1182.2	0.00014954
1184.1	0.00014878
1186	0.00014802
1187.9	0.00014727
1189.9	0.00014653
1191.8	0.00014578
1193.7	0.00014505
1195.6	0.00014432
1197.6	0.00014359
1199.5	0.00014287
1201.4	0.00014216
1203.4	0.00014144
1205.3	0.00014074
1207.2	0.00014004
1209.1	0.00013934
1211.1	0.00013865
1213	0.00013796
1214.9	0.00013728
1216.9	0.0001366
1218.8	0.00013592
1220.7	0.00013526
1222.6	0.00013459
1224.6	0.00013393
1226.5	0.00013327
1228.4	0.00013262
1230.4	0.00013197
1232.3	0.00013133
1234.2	0.00013069
1236.1	0.00013006
1238.1	0.00012942
1240	0.0001288
1241.9	0.00012817
1243.9	0.00012756
1245.8	0.00012694
1247.7	0.00012633
1249.6	0.00012572
1251.6	0.00012512
1253.5	0.00012452
1255.4	0.00012393
1257.4	0.00012334
1259.3	0.00012275
1261.2	0.00012216
1263.1	0.00012158
1265.1	0.00012101
1267	0.00012044
1268.9	0.00011987
1270.9	0.0001193
1272.8	0.00011874
1274.7	0.00011818
1276.6	0.00011763
1278.6	0.00011708
1280.5	0.00011653
1282.4	0.00011598
1284.4	0.00011544
1286.3	0.00011491
1288.2	0.00011437
1290.1	0.00011384
1292.1	0.00011331
1294	0.00011279
1295.9	0.00011227
1297.9	0.00011175
1299.8	0.00011124
1301.7	0.00011072
1303.6	0.00011022
1305.6	0.00010971
1307.5	0.00010921
1309.4	0.00010871
1311.4	0.00010821
1313.3	0.00010772
1315.2	0.00010723
1317.1	0.00010675
1319.1	0.00010626
1321	0.00010578
1322.9	0.0001053
1324.9	0.00010483
1326.8	0.00010436
1328.7	0.00010389
1330.6	0.00010342
1332.6	0.00010296
1334.5	0.0001025
1336.4	0.00010204
1338.4	0.00010158
1340.3	0.00010113
1342.2	0.00010068
1344.1	0.00010023
1346.1	9.9787e-05
1348	9.9346e-05
1349.9	9.8906e-05
1351.9	9.847e-05
1353.8	9.8035e-05
1355.7	9.7604e-05
1357.6	9.7175e-05
1359.6	9.6749e-05
1361.5	9.6325e-05
1363.4	9.5903e-05
1365.4	9.5484e-05
1367.3	9.5068e-05
1369.2	9.4654e-05
1371.1	9.4242e-05
1373.1	9.3833e-05
1375	9.3426e-05
1376.9	9.3021e-05
1378.9	9.2619e-05
1380.8	9.2219e-05
1382.7	9.1822e-05
1384.6	9.1427e-05
1386.6	9.1034e-05
1388.5	9.0643e-05
1390.4	9.0255e-05
1392.4	8.9869e-05
1394.3	8.9485e-05
1396.2	8.9103e-05
1398.1	8.8723e-05
1400.1	8.8346e-05
1402	8.7971e-05
1403.9	8.7597e-05
1405.9	8.7227e-05
1407.8	8.6858e-05
1409.7	8.6491e-05
1411.6	8.6126e-05
1413.6	8.5764e-05
1415.5	8.5403e-05
1417.4	8.5044e-05
1419.4	8.4688e-05
1421.3	8.4333e-05
1423.2	8.3981e-05
1425.1	8.363e-05
1427.1	8.3282e-05
1429	8.2935e-05
1430.9	8.259e-05
1432.9	8.2247e-05
1434.8	8.1906e-05
1436.7	8.1567e-05
1438.6	8.123e-05
1440.6	8.0895e-05
1442.5	8.0562e-05
1444.4	8.023e-05
1446.3	7.99e-05
1448.3	7.9573e-05
1450.2	7.9246e-05
1452.1	7.8922e-05
1454.1	7.8599e-05
1456	7.8279e-05
1457.9	7.796e-05
1459.8	7.7642e-05
1461.8	7.7327e-05
1463.7	7.7013e-05
1465.6	7.6701e-05
1467.6	7.6391e-05
1469.5	7.6082e-05
1471.4	7.5775e-05
1473.3	7.5469e-05
1475.3	7.5166e-05
1477.2	7.4864e-05
1479.1	7.4563e-05
1481.1	7.4264e-05
1483	7.3967e-05
1484.9	7.3671e-05
1486.8	7.3377e-05
1488.8	7.3085e-05
1490.7	7.2794e-05
1492.6	7.2504e-05
1494.6	7.2216e-05
1496.5	7.193e-05
1498.4	7.1645e-05
1500.3	7.1362e-05
1502.3	7.108e-05
1504.2	7.08e-05
1506.1	7.0521e-05
1508.1	7.0244e-05
1510	6.9968e-05
1511.9	6.9693e-05
1513.8	6.9421e-05
1515.8	6.9149e-05
1517.7	6.8879e-05
1519.6	6.861e-05
1521.6	6.8343e-05
1523.5	6.8077e-05
1525.4	6.7812e-05
1527.3	6.7549e-05
1529.3	6.7287e-05
1531.2	6.7027e-05
1533.1	6.6768e-05
1535.1	6.651e-05
1537	6.6254e-05
1538.9	6.5999e-05
1540.8	6.5745e-05
1542.8	6.5493e-05
1544.7	6.5241e-05
1546.6	6.4992e-05
1548.6	6.4743e-05
1550.5	6.4496e-05
1552.4	6.425e-05
1554.3	6.4005e-05
1556.3	6.3761e-05
1558.2	6.3519e-05
1560.1	6.3278e-05
1562.1	6.3038e-05
1564	6.28e-05
1565.9	6.2562e-05
1567.8	6.2326e-05
1569.8	6.2091e-05
1571.7	6.1857e-05
1573.6	6.1624e-05
1575.6	6.1393e-05
1577.5	6.1163e-05
1579.4	6.0933e-05
1581.3	6.0705e-05
1583.3	6.0479e-05
1585.2	6.0253e-05
1587.1	6.0028e-05
1589.1	5.9805e-05
1591	5.9582e-05
1592.9	5.9361e-05
1594.8	5.9141e-05
1596.8	5.8922e-05
1598.7	5.8704e-05
1600.6	5.8487e-05
1602.6	5.8271e-05
1604.5	5.8057e-05
1606.4	5.7843e-05
1608.3	5.763e-05
1610.3	5.7419e-05
1612.2	5.7208e-05
1614.1	5.6999e-05
1616.1	5.679e-05
1618	5.6583e-05
1619.9	5.6376e-05
1621.8	5.6171e-05
1623.8	5.5966e-05
1625.7	5.5763e-05
1627.6	5.556e-05
1629.6	5.5359e-05
1631.5	5.5158e-05
1633.4	5.4959e-05
1635.3	5.476e-05
1637.3	5.4563e-05
1639.2	5.4366e-05
1641.1	5.4171e-05
1643.1	5.3976e-05
1645	5.3782e-05
1646.9	5.3589e-05
1648.8	5.3397e-05
1650.8	5.3206e-05
1652.7	5.3016e-05
1654.6	5.2827e-05
1656.6	5.2638e-05
1658.5	5.2451e-05
1660.4	5.2265e-05
1662.3	5.2079e-05
1664.3	5.1894e-05
1666.2	5.171e-05
1668.1	5.1527e-05
1670.1	5.1345e-05
1672	5.1164e-05
1673.9	5.0984e-05
1675.8	5.0804e-05
1677.8	5.0625e-05
1679.7	5.0448e-05
1681.6	5.027e-05
1683.6	5.0094e-05
1685.5	4.9919e-05
1687.4	4.9744e-05
1689.3	4.9571e-05
1691.3	4.9398e-05
1693.2	4.9226e-05
1695.1	4.9054e-05
1697.1	4.8884e-05
1699	4.8714e-05
1700.9	4.8545e-05
1702.8	4.8377e-05
1704.8	4.821e-05
1706.7	4.8043e-05
1708.6	4.7877e-05
1710.5	4.7712e-05
1712.5	4.7548e-05
1714.4	4.7384e-05
1716.3	4.7222e-05
1718.3	4.7059e-05
1720.2	4.6898e-05
1722.1	4.6738e-05
1724	4.6578e-05
1726	4.6419e-05
1727.9	4.626e-05
1729.8	4.6103e-05
1731.8	4.5946e-05
1733.7	4.579e-05
1735.6	4.5634e-05
1737.5	4.5479e-05
1739.5	4.5325e-05
1741.4	4.5172e-05
1743.3	4.5019e-05
1745.3	4.4867e-05
1747.2	4.4716e-05
1749.1	4.4565e-05
1751	4.4415e-05
1753	4.4266e-05
1754.9	4.4117e-05
1756.8	4.397e-05
1758.8	4.3822e-05
1760.7	4.3676e-05
1762.6	4.353e-05
1764.5	4.3384e-05
1766.5	4.324e-05
1768.4	4.3096e-05
1770.3	4.2952e-05
1772.3	4.281e-05
1774.2	4.2668e-05
1776.1	4.2526e-05
1778	4.2385e-05
1780	4.2245e-05
1781.9	4.2106e-05
1783.8	4.1967e-05
1785.8	4.1828e-05
1787.7	4.169e-05
1789.6	4.1553e-05
1791.5	4.1417e-05
1793.5	4.1281e-05
1795.4	4.1146e-05
1797.3	4.1011e-05
1799.3	4.0877e-05
1801.2	4.0743e-05
1803.1	4.061e-05
1805	4.0478e-05
1807	4.0346e-05
1808.9	4.0215e-05
1810.8	4.0084e-05
1812.8	3.9954e-05
1814.7	3.9824e-05
1816.6	3.9695e-05
1818.5	3.9567e-05
1820.5	3.9439e-05
1822.4	3.9312e-05
1824.3	3.9185e-05
1826.3	3.9059e-05
1828.2	3.8933e-05
1830.1	3.8808e-05
1832	3.8683e-05
1834	3.8559e-05
1835.9	3.8436e-05
1837.8	3.8313e-05
1839.8	3.819e-05
1841.7	3.8068e-05
1843.6	3.7947e-05
1845.5	3.7826e-05
1847.5	3.7706e-05
1849.4	3.7586e-05
1851.3	3.7466e-05
1853.3	3.7347e-05
1855.2	3.7229e-05
1857.1	3.7111e-05
1859	3.6994e-05
1861	3.6877e-05
1862.9	3.6761e-05
1864.8	3.6645e-05
1866.8	3.6529e-05
1868.7	3.6414e-05
1870.6	3.63e-05
1872.5	3.6186e-05
1874.5	3.6073e-05
1876.4	3.596e-05
1878.3	3.5847e-05
1880.3	3.5735e-05
1882.2	3.5623e-05
1884.1	3.5512e-05
1886	3.5402e-05
1888	3.5292e-05
1889.9	3.5182e-05
1891.8	3.5073e-05
1893.8	3.4964e-05
1895.7	3.4855e-05
1897.6	3.4747e-05
1899.5	3.464e-05
1901.5	3.4533e-05
1903.4	3.4426e-05
1905.3	3.432e-05
1907.3	3.4214e-05
1909.2	3.4109e-05
1911.1	3.4004e-05
1913	3.39e-05
1915	3.3796e-05
1916.9	3.3692e-05
1918.8	3.3589e-05
1920.8	3.3487e-05
1922.7	3.3384e-05
1924.6	3.3282e-05
1926.5	3.3181e-05
1928.5	3.308e-05
1930.4	3.2979e-05
1932.3	3.2879e-05
1934.3	3.2779e-05
1936.2	3.268e-05
1938.1	3.2581e-05
1940	3.2482e-05
1942	3.2384e-05
1943.9	3.2286e-05
1945.8	3.2189e-05
1947.8	3.2092e-05
1949.7	3.1995e-05
1951.6	3.1899e-05
1953.5	3.1803e-05
1955.5	3.1708e-05
1957.4	3.1613e-05
1959.3	3.1518e-05
1961.3	3.1424e-05
1963.2	3.133e-05
1965.1	3.1236e-05
1967	3.1143e-05
1969	3.105e-05
1970.9	3.0958e-05
1972.8	3.0866e-05
1974.8	3.0774e-05
1976.7	3.0683e-05
1978.6	3.0592e-05
1980.5	3.0501e-05
1982.5	3.0411e-05
1984.4	3.0321e-05
1986.3	3.0231e-05
1988.2	3.0142e-05
1990.2	3.0053e-05
1992.1	2.9965e-05
1994	2.9876e-05
1996	2.9789e-05
1997.9	2.9701e-05
1999.8	2.9614e-05